wavelength in cm
 1.000e+00
 9.000e-01
 8.000e-01
 7.000e-01
 6.000e-01
 5.500e-01
 5.000e-01
 4.500e-01
 4.000e-01
 3.500e-01
 3.000e-01
 2.500e-01
 2.098e-01
 1.500e-01
 1.382e-01
 1.320e-01
 1.150e-01
 1.000e-01
 9.970e-02
 8.670e-02
 8.500e-02
 7.500e-02
 6.000e-02
 5.500e-02
 5.000e-02
 4.500e-02
 4.000e-02
 3.500e-02
 3.000e-02
 2.750e-02
 2.500e-02
 2.400e-02
 2.000e-02
 1.800e-02
 1.600e-02
 1.500e-02
 1.400e-02
 1.200e-02
 1.000e-02
 9.000e-03
 8.000e-03
 7.500e-03
 7.000e-03
 6.000e-03
 5.000e-03
 4.500e-03
 4.000e-03
 3.500e-03
 3.000e-03
 2.750e-03
 2.500e-03
 2.400e-03
 2.350e-03
 2.320e-03
 2.310e-03
 2.300e-03
 2.250e-03
 2.200e-03
 2.150e-03
 2.120e-03
 2.110e-03
 2.100e-03
 2.080e-03
 2.000e-03
 1.950e-03
 1.900e-03
 1.850e-03
 1.830e-03
 1.820e-03
 1.810e-03
 1.800e-03
 1.750e-03
 1.700e-03
 1.670e-03
 1.650e-03
 1.640e-03
 1.630e-03
 1.610e-03
 1.600e-03
 1.590e-03
 1.580e-03
 1.570e-03
 1.560e-03
 1.540e-03
 1.520e-03
 1.510e-03
 1.500e-03
 1.450e-03
 1.440e-03
 1.430e-03
 1.420e-03
 1.400e-03
 1.380e-03
 1.370e-03
 1.360e-03
 1.350e-03
 1.340e-03
 1.330e-03
 1.320e-03
 1.310e-03
 1.290e-03
 1.280e-03
 1.270e-03
 1.260e-03
 1.250e-03
 1.220e-03
 1.210e-03
 1.200e-03
 1.190e-03
 1.180e-03
 1.170e-03
 1.160e-03
 1.150e-03
 1.140e-03
 1.130e-03
 1.120e-03
 1.110e-03
 1.090e-03
 1.050e-03
 1.000e-03
 9.800e-04
 9.600e-04
 9.500e-04
 9.400e-04
 9.200e-04
 8.900e-04
 8.700e-04
 8.600e-04
 8.500e-04
 8.400e-04
 8.200e-04
 8.000e-04
 7.900e-04
 7.800e-04
 7.700e-04
 7.600e-04
 7.500e-04
 7.300e-04
 7.200e-04
 7.100e-04
 7.000e-04
 6.900e-04
 6.800e-04
 6.600e-04
 6.400e-04
 6.300e-04
 6.200e-04
 6.100e-04
 5.900e-04
 5.500e-04
 5.300e-04
 5.200e-04
 5.100e-04
 5.000e-04
 4.800e-04
 4.500e-04
 4.000e-04
 3.800e-04
 3.600e-04
 3.400e-04
 3.300e-04
 3.200e-04
 3.150e-04
 3.100e-04
 3.080e-04
 3.050e-04
 3.000e-04
 2.900e-04
 2.800e-04
 2.600e-04
 2.500e-04
 2.200e-04
 2.159e-04
 2.000e-04
 1.662e-04
 1.650e-04
 1.250e-04
 1.235e-04
 1.130e-04
 1.000e-04
 9.500e-05
 9.300e-05
 9.200e-05
 9.100e-05
 9.000e-05
 8.900e-05
 8.800e-05
 8.700e-05
 8.600e-05
 8.500e-05
 8.400e-05
 8.330e-05
 8.200e-05
 8.100e-05
 8.000e-05
 7.900e-05
 7.800e-05
 7.700e-05
 7.600e-05
 7.500e-05
 7.400e-05
 7.300e-05
 7.140e-05
 7.100e-05
 7.000e-05
 6.900e-05
 6.800e-05
 6.700e-05
 6.600e-05
 6.500e-05
 6.400e-05
 6.300e-05
 6.250e-05
 6.200e-05
 6.100e-05
 6.000e-05
 5.900e-05
 5.800e-05
 5.700e-05
 5.600e-05
 5.500e-05
 5.477e-05
 5.400e-05
 5.300e-05
 5.200e-05
 5.100e-05
 5.000e-05
 4.900e-05
 4.880e-05
 4.800e-05
 4.760e-05
 4.700e-05
 4.650e-05
 4.600e-05
 4.550e-05
 4.500e-05
 4.440e-05
 4.350e-05
 4.170e-05
 4.000e-05
 3.850e-05
 3.6560e-05
 3.570e-05
 3.330e-05
 3.130e-05
 3.000e-05
 2.940e-05
 2.780e-05
 2.630e-05
 2.500e-05
 2.380e-05
 2.270e-05
 2.170e-05
 2.080e-05
 2.000e-05
 1.920e-05
 1.850e-05
 1.790e-05
 1.720e-05
 1.670e-05
 1.610e-05
 1.560e-05
 1.520e-05
 1.470e-05
 1.430e-05
 1.390e-05
 1.350e-05
 1.320e-05
 1.280e-05
 1.250e-05
 1.220e-05
 1.190e-05
 1.160e-05
 1.140e-05
 1.110e-05
 1.080e-05
 1.050e-05
 1.030e-05
 1.000e-05
 9.750e-06
 9.500e-06
 9.250e-06
 9.080e-06
